File: raw-data/Sp15_245L_sect-001_group-1_glass.raw
"Test Type","Manual"
"Method Name:","C:\INSTRON\user\template\245L-Mod01.mtM"
"Name:","4FtPerMin"
"Operator ID:","Jaques"
"Company:","BSU"
"Lab name:",""
"Test date:","1/26/15"
"Temperature:",""
"Humidity:",""
"Note 1:",""
"Note 2:",""
"Note 3:",""
"Geometry:","Circular"
"Specimen",1
"Specimen name:",""
"Width:",6.350000,"mm"
"Thickness:",1.524000,"mm"
"Length:",12,"mm"
"Diameter:",5.000000,"um"
"Inner diameter:",0.500000,"mm"
"Outer diameter:",1.000000,"mm"
"Wall thickness:",0.500000,"mm"
"Area:",19.635,"um*um"
"Linear density:",1.000000,"den"
"Sled weight:",9.806650,"N"
"Loading span:",0.000000,"mm"
"Support span:",1.000000,"mm"
"Span ratio:","2"
"Fixture type:","3-point"
"Comment:",""
"Included"
"Time sec","Extension mm","Load N","Stress MPa","Cycle Count ","Total Cycle Count ","Repetitions Count ","Strain [Exten.] %","Tenacity gf/tex"
0,0,-4.687013,-238707.6,0,0,0,0,-4301.48
0.056,0,-4.670909,-237887.4,0,0,0,0,-4286.701
0.144,-0.000236111,-4.708138,-239783.5,0,0,0,-0.001967592,-4320.868
0.188,-0.000472222,-4.824738,-245721.9,0,0,0,-0.003935183,-4427.877
0.24,-0.0007083331,-4.928245,-250993.5,0,0,0,-0.005902776,-4522.871
0.292,-0.001180555,-5.036968,-256530.7,0,0,0,-0.009837959,-4622.65
0.37,-0.001652777,-5.127995,-261166.6,0,0,0,-0.01377314,-4706.189
0.44,-0.002124999,-5.217808,-265740.8,0,0,0,-0.01770833,-4788.615
0.518,-0.002597221,-5.25994,-267886.6,0,0,0,-0.02164351,-4827.282
0.552,-0.003305554,-5.367214,-273350,0,0,0,-0.02754628,-4925.732
0.592,-0.003777776,-5.463663,-278262.1,0,0,0,-0.03148147,-5014.247
0.626,-0.004486109,-5.575397,-283952.6,0,0,0,-0.03738425,-5116.79
0.66,-0.004958331,-5.671043,-288823.9,0,0,0,-0.04131943,-5204.569
0.696,-0.005430553,-5.770655,-293897.1,0,0,0,-0.04525461,-5295.988
0.728,-0.006138886,-5.865028,-298703.4,0,0,0,-0.05115739,-5382.598
0.766,-0.006611108,-5.958194,-303448.3,0,0,0,-0.05509257,-5468.1
0.814,-0.007319441,-6.055115,-308384.5,0,0,0,-0.06099534,-5557.049
0.868,-0.008027775,-6.151185,-313277.3,0,0,0,-0.06689812,-5645.217
0.922,-0.008736108,-6.251385,-318380.4,0,0,0,-0.0728009,-5737.175
0.992,-0.00944444,-6.346047,-323201.5,0,0,0,-0.07870367,-5824.051
1.058,-0.01038889,-6.430272,-327491.1,0,0,0,-0.08657404,-5901.347
1.128,-0.01109722,-6.520939,-332108.7,0,0,0,-0.09247681,-5984.556
1.196,-0.01180555,-6.614437,-336870.5,0,0,0,-0.09837959,-6070.364
1.28,-0.01251388,-6.707138,-341591.8,0,0,0,-0.1042824,-6155.439
1.362,-0.01345833,-6.797233,-346180.3,0,0,0,-0.1121527,-6238.124
1.428,-0.01416666,-6.892027,-351008.1,0,0,0,-0.1180555,-6325.121
1.496,-0.01487499,-6.975371,-355252.8,0,0,0,-0.1239583,-6401.609
1.572,-0.01558333,-7.056164,-359367.5,0,0,0,-0.1298611,-6475.756
1.638,-0.01629166,-7.12708,-362979.2,0,0,0,-0.1357638,-6540.839
1.692,-0.01676388,-7.22549,-367991.2,0,0,0,-0.139699,-6631.154
1.772,-0.01770833,-7.305295,-372055.6,0,0,0,-0.1475694,-6704.395
1.854,-0.01841666,-7.388996,-376318.5,0,0,0,-0.1534722,-6781.211
1.934,-0.0193611,-7.472004,-380546,0,0,0,-0.1613425,-6857.391
1.988,-0.01983333,-7.581163,-386105.5,0,0,0,-0.1652777,-6957.571
2.042,-0.02030555,-7.593216,-386719.3,0,0,0,-0.1692129,-6968.633
2.08,-0.02077777,-7.693466,-391825,0,0,0,-0.1731481,-7060.637
2.16,-0.0214861,-7.780392,-396252.1,0,0,0,-0.1790509,-7140.413
2.234,-0.02243054,-7.858963,-400253.7,0,0,0,-0.1869212,-7212.521
2.314,-0.02313888,-7.940814,-404422.3,0,0,0,-0.192824,-7287.639
2.366,-0.0236111,-8.03618,-409279.3,0,0,0,-0.1967592,-7375.161
2.454,-0.02455555,-8.109644,-413020.8,0,0,0,-0.2046295,-7442.582
2.518,-0.02502777,-8.203392,-417795.3,0,0,0,-0.2085647,-7528.619
2.596,-0.02597221,-8.292041,-422310.2,0,0,0,-0.2164351,-7609.976
2.678,-0.02668055,-8.384218,-427004.8,0,0,0,-0.2223379,-7694.571
2.752,-0.02738888,-8.467855,-431264.3,0,0,0,-0.2282407,-7771.328
2.82,-0.02809721,-8.563492,-436135.1,0,0,0,-0.2341434,-7859.099
2.906,-0.02880554,-8.644469,-440259.2,0,0,0,-0.2400462,-7933.415
2.976,-0.02974999,-8.728633,-444545.6,0,0,0,-0.2479166,-8010.655
3.038,-0.03022221,-8.821133,-449256.6,0,0,0,-0.2518517,-8095.547
3.13,-0.03116666,-8.917124,-454145.4,0,0,0,-0.2597221,-8183.643
3.206,-0.03187499,-9.005543,-458648.5,0,0,0,-0.2656249,-8264.788
3.296,-0.03281943,-9.096913,-463302,0,0,0,-0.2734953,-8348.643
3.366,-0.03352777,-9.183863,-467730.3,0,0,0,-0.2793981,-8428.44
3.444,-0.0342361,-9.274052,-472323.6,0,0,0,-0.2853008,-8511.212
3.518,-0.03494443,-9.368084,-477112.6,0,0,0,-0.2912036,-8597.509
3.598,-0.03588887,-9.449684,-481268.5,0,0,0,-0.299074,-8672.396
3.66,-0.0363611,-9.549617,-486358,0,0,0,-0.3030091,-8764.109
3.756,-0.03730554,-9.632412,-490574.8,0,0,0,-0.3108795,-8840.095
3.814,-0.03801387,-9.716175,-494840.8,0,0,0,-0.3167823,-8916.968
3.884,-0.03872221,-9.800375,-499129,0,0,0,-0.322685,-8994.24
3.96,-0.03943054,-9.887089,-503545.3,0,0,0,-0.3285878,-9073.822
4.04,-0.04013887,-9.969431,-507739,0,0,0,-0.3344906,-9149.392
4.104,-0.0408472,-10.04785,-511733,0,0,0,-0.3403934,-9221.363
4.168,-0.04155554,-10.13259,-516048.8,0,0,0,-0.3462962,-9299.134
4.264,-0.04249998,-10.22352,-520679.6,0,0,0,-0.3541665,-9382.58
4.334,-0.04320832,-10.31264,-525218.4,0,0,0,-0.3600693,-9464.37
4.396,-0.04368054,-10.40749,-530049.4,0,0,0,-0.3640045,-9551.422
4.47,-0.04438887,-10.48086,-533785.7,0,0,0,-0.3699073,-9618.75
4.55,-0.04533332,-10.54919,-537266.1,0,0,0,-0.3777776,-9681.466
4.62,-0.04604165,-10.64514,-542152.7,0,0,0,-0.3836804,-9769.522
4.678,-0.04651387,-10.73439,-546698.2,0,0,0,-0.3876156,-9851.433
4.758,-0.04745831,-10.81896,-551004.9,0,0,0,-0.3954859,-9929.038
4.83,-0.04793053,-10.90577,-555426.4,0,0,0,-0.3994211,-10008.71
4.922,-0.04887498,-10.99494,-559967.8,0,0,0,-0.4072915,-10090.55
4.974,-0.04958331,-11.09207,-564914.7,0,0,0,-0.4131942,-10179.69
5.056,-0.05029164,-11.188,-569800.4,0,0,0,-0.419097,-10267.73
5.124,-0.05099998,-11.26434,-573688.1,0,0,0,-0.4249998,-10337.79
5.19,-0.05170831,-11.35265,-578185.6,0,0,0,-0.4309026,-10418.83
5.258,-0.05241664,-11.44494,-582886.2,0,0,0,-0.4368054,-10503.53
5.344,-0.05312498,-11.52578,-587002.9,0,0,0,-0.4427081,-10577.72
5.414,-0.05383331,-11.60934,-591259.1,0,0,0,-0.4486109,-10654.41
5.482,-0.05454164,-11.70357,-596057.8,0,0,0,-0.4545137,-10740.88
5.552,-0.05524998,-11.79023,-600471.6,0,0,0,-0.4604165,-10820.42
5.622,-0.05595831,-11.87659,-604869.8,0,0,0,-0.4663192,-10899.68
5.698,-0.05690275,-11.96169,-609204.1,0,0,0,-0.4741896,-10977.78
5.774,-0.05761109,-12.04343,-613366.8,0,0,0,-0.4800924,-11052.79
5.836,-0.05808331,-12.13306,-617931.6,0,0,0,-0.4840276,-11135.05
5.916,-0.05902775,-12.22991,-622864.4,0,0,0,-0.4918979,-11223.94
6.006,-0.05973608,-12.33564,-628249.2,0,0,0,-0.4978007,-11320.97
6.094,-0.06068053,-12.41718,-632401.9,0,0,0,-0.5056711,-11395.8
6.168,-0.06138886,-12.51629,-637449.7,0,0,0,-0.5115739,-11486.76
6.226,-0.0620972,-12.61893,-642676.6,0,0,0,-0.5174766,-11580.95
6.306,-0.06280552,-12.69509,-646555.4,0,0,0,-0.5233794,-11650.85
6.366,-0.06374998,-12.77531,-650641.1,0,0,0,-0.5312498,-11724.47
6.41,-0.0642222,-12.8747,-655702.9,0,0,0,-0.535185,-11815.68
6.474,-0.06516664,-12.95615,-659851.4,0,0,0,-0.5430554,-11890.44
6.572,-0.06587497,-13.04226,-664236.8,0,0,0,-0.5489581,-11969.46
6.652,-0.06658331,-13.10546,-667455.8,0,0,0,-0.5548609,-12027.47
6.71,-0.06705553,-13.18297,-671403.3,0,0,0,-0.5587961,-12098.6
6.794,-0.06776386,-13.27248,-675961.8,0,0,0,-0.5646988,-12180.75
6.872,-0.0687083,-13.34427,-679617.9,0,0,0,-0.5725692,-12246.63
6.942,-0.06918052,-13.44608,-684803,0,0,0,-0.5765043,-12340.06
7.008,-0.06988886,-13.53378,-689269.9,0,0,0,-0.5824072,-12420.56
7.092,-0.0708333,-13.61904,-693612.2,0,0,0,-0.5902776,-12498.8
7.174,-0.07154164,-13.69992,-697731.3,0,0,0,-0.5961803,-12573.03
7.244,-0.07248608,-13.79781,-702716.9,0,0,0,-0.6040506,-12662.87
7.314,-0.07319441,-13.89422,-707626.8,0,0,0,-0.6099535,-12751.34
7.384,-0.07390274,-13.97977,-711984,0,0,0,-0.6158562,-12829.86
7.458,-0.07461108,-14.05385,-715756.8,0,0,0,-0.621759,-12897.85
7.518,-0.0750833,-14.14165,-720228.3,0,0,0,-0.6256942,-12978.42
7.592,-0.07602775,-14.21753,-724092.7,0,0,0,-0.6335645,-13048.06
7.67,-0.07673609,-14.30628,-728612.8,0,0,0,-0.6394674,-13129.51
7.768,-0.07744441,-14.39073,-732913.8,0,0,0,-0.6453701,-13207.01
7.836,-0.07815275,-14.45928,-736405.2,0,0,0,-0.651273,-13269.93
7.918,-0.07909719,-14.55056,-741054.1,0,0,0,-0.6591433,-13353.7
7.988,-0.07980552,-14.64592,-745910.4,0,0,0,-0.665046,-13441.21
8.078,-0.08051386,-14.73389,-750390.8,0,0,0,-0.6709488,-13521.95
8.134,-0.08122219,-14.80738,-754133.6,0,0,0,-0.6768516,-13589.39
8.218,-0.08193052,-14.89328,-758508.8,0,0,0,-0.6827543,-13668.23
8.294,-0.08263885,-14.97396,-762617.7,0,0,0,-0.6886571,-13742.27
8.366,-0.0835833,-15.0618,-767091,0,0,0,-0.6965275,-13822.88
8.438,-0.08429163,-15.15164,-771666.7,0,0,0,-0.7024302,-13905.33
8.52,-0.08499997,-15.2338,-775851.1,0,0,0,-0.708333,-13980.74
8.6,-0.08594441,-15.31648,-780061.9,0,0,0,-0.7162035,-14056.62
8.668,-0.08665274,-15.41231,-784942.4,0,0,0,-0.7221062,-14144.56
8.75,-0.08736108,-15.50058,-789438.1,0,0,0,-0.728009,-14225.57
8.85,-0.08830551,-15.60166,-794585.9,0,0,0,-0.7358793,-14318.34
8.928,-0.08901386,-15.68887,-799027.4,0,0,0,-0.7417821,-14398.37
8.998,-0.08995829,-15.75875,-802586.6,0,0,0,-0.7496524,-14462.51
9.076,-0.09066664,-15.85013,-807240.3,0,0,0,-0.7555553,-14546.37
9.15,-0.09137496,-15.93097,-811357.4,0,0,0,-0.761458,-14620.56
9.232,-0.09231941,-16.01174,-815471.2,0,0,0,-0.7693284,-14694.69
9.316,-0.09302774,-16.10971,-820460.6,0,0,0,-0.7752311,-14784.6
9.408,-0.09397218,-16.20179,-825150.4,0,0,0,-0.7831016,-14869.11
9.496,-0.09491662,-16.29366,-829829.2,0,0,0,-0.7909719,-14953.42
9.59,-0.09586107,-16.37703,-834075.3,0,0,0,-0.7988423,-15029.93
9.676,-0.0965694,-16.46665,-838639.9,0,0,0,-0.804745,-15112.18
9.754,-0.09751385,-16.55377,-843076.4,0,0,0,-0.8126154,-15192.13
9.838,-0.09822218,-16.64952,-847953.1,0,0,0,-0.8185182,-15280.01
9.9,-0.09893051,-16.73608,-852361.8,0,0,0,-0.8244209,-15359.45
9.97,-0.09963885,-16.82444,-856861.6,0,0,0,-0.8303237,-15440.54
9.998,-0.1001111,-16.8472,-858020.9,0,0,0,-0.834259,-15461.43