File: raw-data/Sp15_245L_sect-001_group-1_ultem.raw
"Test Type","Manual"
"Method Name:","C:\INSTRON\user\template\Sp15_245Lsect001_group-3_aluminum_bendtest.mtM"
"Name:","4FtPerMin"
"Operator ID:","Jaques"
"Company:","BSU"
"Lab name:",""
"Test date:","1/26/15"
"Temperature:",""
"Humidity:",""
"Note 1:",""
"Note 2:",""
"Note 3:",""
"Geometry:","Circular"
"Specimen",1
"Specimen name:",""
"Width:",6.350000,"mm"
"Thickness:",1.524000,"mm"
"Length:",12,"mm"
"Diameter:",5.000000,"um"
"Inner diameter:",0.500000,"mm"
"Outer diameter:",1.000000,"mm"
"Wall thickness:",0.500000,"mm"
"Area:",19.635,"um*um"
"Linear density:",1.000000,"den"
"Sled weight:",9.806650,"N"
"Loading span:",0.000000,"mm"
"Support span:",1.000000,"mm"
"Span ratio:","2"
"Fixture type:","3-point"
"Comment:",""
"Included"
"Time sec","Extension mm","Load N","Stress MPa","Cycle Count ","Total Cycle Count ","Repetitions Count ","Strain [Exten.] %","Tenacity gf/tex"
0,0,-5.028902,-256119.9,0,0,0,0,-4615.247
0.086,0,-5.031087,-256231.2,0,0,0,0,-4617.253
0.136,0,-5.007415,-255025.5,0,0,0,0,-4595.528
0.182,-0.000236111,-5.081031,-258774.8,0,0,0,-0.001967592,-4663.088
0.224,-0.000236111,-5.04117,-256744.7,0,0,0,-0.001967592,-4626.507
0.288,-0.000472222,-5.103446,-259916.4,0,0,0,-0.003935183,-4683.66
0.318,-0.000944444,-5.197389,-264700.8,0,0,0,-0.007870367,-4769.875
0.35,-0.001652777,-5.30529,-270196.2,0,0,0,-0.01377314,-4868.901
0.376,-0.00236111,-5.400891,-275065.2,0,0,0,-0.01967592,-4956.639
0.408,-0.003069443,-5.482883,-279240.9,0,0,0,-0.02557869,-5031.886
0.44,-0.003777776,-5.553667,-282845.9,0,0,0,-0.03148147,-5096.847
0.476,-0.004486109,-5.634225,-286948.7,0,0,0,-0.03738425,-5170.779
0.548,-0.005194443,-5.715035,-291064.4,0,0,0,-0.04328702,-5244.943
0.634,-0.005902775,-5.789554,-294859.6,0,0,0,-0.04918979,-5313.332
0.71,-0.00684722,-5.840425,-297450.4,0,0,0,-0.05706016,-5360.019
0.782,-0.007555552,-5.930095,-302017.3,0,0,0,-0.06296293,-5442.312
0.856,-0.008263885,-5.99796,-305473.6,0,0,0,-0.06886571,-5504.595
0.918,-0.008972219,-6.074902,-309392.2,0,0,0,-0.07476849,-5575.208
1.012,-0.009916663,-6.141378,-312777.8,0,0,0,-0.08263886,-5636.216
1.088,-0.010625,-6.227952,-317187,0,0,0,-0.08854163,-5715.669
1.156,-0.01133333,-6.296972,-320702.2,0,0,0,-0.09444441,-5779.012
1.234,-0.01204166,-6.364846,-324159,0,0,0,-0.1003472,-5841.303
1.314,-0.01298611,-6.449427,-328466.6,0,0,0,-0.1082175,-5918.927
1.408,-0.01369444,-6.53527,-332838.6,0,0,0,-0.1141203,-5997.709
1.472,-0.01440277,-6.597534,-336009.7,0,0,0,-0.1200231,-6054.852
1.542,-0.0151111,-6.670753,-339738.7,0,0,0,-0.1259259,-6122.047
1.612,-0.01605555,-6.732092,-342862.7,0,0,0,-0.1337962,-6178.341
1.684,-0.01676388,-6.816149,-347143.6,0,0,0,-0.139699,-6255.484
1.74,-0.01747222,-6.890526,-350931.6,0,0,0,-0.1456018,-6323.743
1.828,-0.01841666,-6.958901,-354413.9,0,0,0,-0.1534722,-6386.494
1.928,-0.01912499,-7.032854,-358180.3,0,0,0,-0.1593749,-6454.364
1.994,-0.01983333,-7.109882,-362103.3,0,0,0,-0.1652777,-6525.056
2.062,-0.02054166,-7.185617,-365960.5,0,0,0,-0.1711805,-6594.561
2.154,-0.0214861,-7.266321,-370070.7,0,0,0,-0.1790509,-6668.626
2.22,-0.02219444,-7.344625,-374058.7,0,0,0,-0.1849536,-6740.49
2.316,-0.02290277,-7.407796,-377276,0,0,0,-0.1908564,-6798.465
2.382,-0.0236111,-7.466737,-380277.8,0,0,0,-0.1967592,-6852.557
2.458,-0.02408332,-7.544463,-384236.3,0,0,0,-0.2006944,-6923.89
2.528,-0.02502777,-7.613757,-387765.5,0,0,0,-0.2085647,-6987.484
2.628,-0.02597221,-7.697621,-392036.7,0,0,0,-0.2164351,-7064.45
2.684,-0.02644443,-7.781557,-396311.4,0,0,0,-0.2203703,-7141.481
2.774,-0.02738888,-7.84776,-399683.1,0,0,0,-0.2282407,-7202.239
2.84,-0.02809721,-7.931345,-403940.1,0,0,0,-0.2341434,-7278.949
2.942,-0.02904166,-8.007717,-407829.7,0,0,0,-0.2420138,-7349.039
3.014,-0.02974999,-8.086028,-411818,0,0,0,-0.2479166,-7420.908
3.08,-0.03045832,-8.153928,-415276.2,0,0,0,-0.2538193,-7483.224
3.158,-0.03116666,-8.22801,-419049.1,0,0,0,-0.2597221,-7551.211
3.244,-0.0321111,-8.305828,-423012.3,0,0,0,-0.2675925,-7622.629
3.316,-0.03281943,-8.376531,-426613.3,0,0,0,-0.2734953,-7687.516
3.398,-0.03376387,-8.450922,-430401.9,0,0,0,-0.2813656,-7755.788
3.468,-0.03447221,-8.523984,-434122.9,0,0,0,-0.2872684,-7822.84
3.54,-0.03518054,-8.598757,-437931.1,0,0,0,-0.2931712,-7891.463
3.614,-0.03588887,-8.654571,-440773.7,0,0,0,-0.299074,-7942.686
3.67,-0.0363611,-8.733044,-444770.3,0,0,0,-0.3030091,-8014.704
3.75,-0.03730554,-8.806424,-448507.5,0,0,0,-0.3108795,-8082.048
3.838,-0.03801387,-8.884668,-452492.4,0,0,0,-0.3167823,-8153.856
3.916,-0.03895832,-8.959536,-456305.4,0,0,0,-0.3246527,-8222.565
3.982,-0.03943054,-9.043876,-460600.8,0,0,0,-0.3285878,-8299.969
4.06,-0.04037498,-9.108353,-463884.6,0,0,0,-0.3364582,-8359.142
4.124,-0.0408472,-9.182413,-467656.5,0,0,0,-0.3403934,-8427.11
4.212,-0.04179165,-9.258675,-471540.5,0,0,0,-0.3482637,-8497.1
4.294,-0.04273609,-9.312075,-474260.1,0,0,0,-0.3561341,-8546.106
4.348,-0.04320832,-9.385663,-478007.9,0,0,0,-0.3600693,-8613.642
4.412,-0.04391665,-9.457999,-481691.9,0,0,0,-0.3659721,-8680.027
4.504,-0.04462499,-9.53594,-485661.5,0,0,0,-0.3718749,-8751.558
4.576,-0.04533332,-9.603262,-489090.1,0,0,0,-0.3777776,-8813.342
4.64,-0.04604165,-9.671093,-492544.7,0,0,0,-0.3836804,-8875.594
4.718,-0.04674998,-9.74752,-496437.1,0,0,0,-0.3895831,-8945.733
4.778,-0.04745831,-9.81066,-499652.8,0,0,0,-0.3954859,-9003.681
4.862,-0.04816664,-9.880753,-503222.6,0,0,0,-0.4013887,-9068.008
4.92,-0.04887498,-9.949406,-506719.1,0,0,0,-0.4072915,-9131.014
5.016,-0.04981942,-10.01706,-510164.8,0,0,0,-0.4151618,-9193.104
5.076,-0.05052776,-10.09542,-514155.6,0,0,0,-0.4210646,-9265.02
5.158,-0.05123609,-10.17943,-518434.1,0,0,0,-0.4269674,-9342.116
5.236,-0.05194442,-10.24906,-521980.6,0,0,0,-0.4328702,-9406.023
5.302,-0.05288887,-10.31609,-525394.1,0,0,0,-0.4407406,-9467.535
5.382,-0.0535972,-10.39572,-529449.5,0,0,0,-0.4466433,-9540.612
5.458,-0.05430553,-10.47117,-533292.4,0,0,0,-0.4525461,-9609.86
5.54,-0.05524998,-10.5422,-536909.9,0,0,0,-0.4604165,-9675.048
5.64,-0.05619442,-10.62168,-540957.9,0,0,0,-0.4682868,-9747.993
5.718,-0.05690275,-10.70047,-544970.3,0,0,0,-0.4741896,-9820.296
5.794,-0.05761109,-10.77116,-548570.8,0,0,0,-0.4800924,-9885.175
5.872,-0.05831942,-10.84403,-552281.8,0,0,0,-0.4859952,-9952.048
5.942,-0.05926386,-10.91301,-555794.8,0,0,0,-0.4938655,-10015.35
6.014,-0.06020831,-10.98588,-559506.3,0,0,0,-0.5017359,-10082.23
6.076,-0.06091664,-11.06092,-563328.1,0,0,0,-0.5076387,-10151.1
6.15,-0.06162497,-11.12784,-566736.4,0,0,0,-0.5135415,-10212.52
6.222,-0.0620972,-11.1952,-570166.8,0,0,0,-0.5174766,-10274.33
6.316,-0.06304164,-11.26778,-573863.5,0,0,0,-0.525347,-10340.95
6.38,-0.06374998,-11.34072,-577578.1,0,0,0,-0.5312498,-10407.88
6.472,-0.0644583,-11.41993,-581612.1,0,0,0,-0.5371525,-10480.58
6.548,-0.06540275,-11.48942,-585151.6,0,0,0,-0.5450229,-10544.36
6.614,-0.06611108,-11.56419,-588959.4,0,0,0,-0.5509257,-10612.97
6.692,-0.06681942,-11.63717,-592676.3,0,0,0,-0.5568284,-10679.95
6.768,-0.06776386,-11.7028,-596018.8,0,0,0,-0.5646988,-10740.18
6.852,-0.0684722,-11.77433,-599661.6,0,0,0,-0.5706016,-10805.83
6.934,-0.06941664,-11.84535,-603278.7,0,0,0,-0.578472,-10871
7.008,-0.07012497,-11.92778,-607476.9,0,0,0,-0.5843747,-10946.66
7.082,-0.0708333,-12.00472,-611395.6,0,0,0,-0.5902776,-11017.27
7.176,-0.07154164,-12.07392,-614919.5,0,0,0,-0.5961803,-11080.77
7.26,-0.07224997,-12.15436,-619016.4,0,0,0,-0.6020831,-11154.6
7.338,-0.0729583,-12.22807,-622770.3,0,0,0,-0.6079859,-11222.24
7.416,-0.07390274,-12.28731,-625787.6,0,0,0,-0.6158562,-11276.61
7.472,-0.07437497,-12.36553,-629771.6,0,0,0,-0.6197914,-11348.4
7.548,-0.0750833,-12.44565,-633851.8,0,0,0,-0.6256942,-11421.93
7.63,-0.07602775,-12.5136,-637312.6,0,0,0,-0.6335645,-11484.29
7.694,-0.07673609,-12.58498,-640947.8,0,0,0,-0.6394674,-11549.8
7.774,-0.07744441,-12.67466,-645515.2,0,0,0,-0.6453701,-11632.1
7.85,-0.07815275,-12.74355,-649023.6,0,0,0,-0.651273,-11695.32
7.924,-0.07886108,-12.81144,-652481.1,0,0,0,-0.6571757,-11757.63
7.988,-0.07956942,-12.89055,-656510.2,0,0,0,-0.6630785,-11830.23
8.05,-0.08027774,-12.96049,-660072.4,0,0,0,-0.6689812,-11894.42
8.14,-0.08098608,-13.03375,-663803.3,0,0,0,-0.674884,-11961.65
8.192,-0.08169441,-13.09885,-667119,0,0,0,-0.6807867,-12021.4
8.264,-0.08240275,-13.17026,-670755.9,0,0,0,-0.6866896,-12086.93
8.352,-0.08311108,-13.25371,-675005.8,0,0,0,-0.6925923,-12163.52
8.414,-0.08381941,-13.33687,-679241.4,0,0,0,-0.6984951,-12239.84
8.496,-0.08476386,-13.4114,-683037.3,0,0,0,-0.7063655,-12308.24
8.564,-0.08547218,-13.48372,-686720.4,0,0,0,-0.7122682,-12374.62
8.628,-0.08594441,-13.56038,-690624.3,0,0,0,-0.7162035,-12444.96
8.706,-0.08688885,-13.6233,-693828.8,0,0,0,-0.7240738,-12502.71
8.786,-0.08759719,-13.71133,-698312.3,0,0,0,-0.7299766,-12583.5
8.866,-0.08830551,-13.78576,-702103.1,0,0,0,-0.7358793,-12651.81
8.926,-0.08901386,-13.85722,-705742.2,0,0,0,-0.7417821,-12717.38
8.994,-0.08972218,-13.94734,-710331.9,0,0,0,-0.7476848,-12800.09
9.058,-0.09066664,-14.01166,-713608.1,0,0,0,-0.7555553,-12859.13
9.112,-0.09113885,-14.09723,-717966,0,0,0,-0.7594904,-12937.66
9.192,-0.09208329,-14.16813,-721577.1,0,0,0,-0.7673607,-13002.73
9.268,-0.09255552,-14.24463,-725472.9,0,0,0,-0.771296,-13072.93
9.342,-0.09349996,-14.31756,-729187.6,0,0,0,-0.7791663,-13139.87
9.412,-0.09420829,-14.3871,-732729.1,0,0,0,-0.7850691,-13203.68
9.47,-0.09468052,-14.46235,-736561.4,0,0,0,-0.7890043,-13272.74
9.544,-0.09562496,-14.53433,-740227.2,0,0,0,-0.7968747,-13338.8
9.62,-0.09633329,-14.60897,-744028.9,0,0,0,-0.8027774,-13407.31
9.71,-0.09704163,-14.69353,-748335.4,0,0,0,-0.8086802,-13484.91
9.806,-0.09798607,-14.77036,-752248.1,0,0,0,-0.8165506,-13555.42
9.858,-0.09869441,-14.84655,-756128.8,0,0,0,-0.8224534,-13625.34
9.94,-0.09940273,-14.92203,-759972.9,0,0,0,-0.8283561,-13694.61
10.002,-0.1001111,-14.98103,-762977.6,0,0,0,-0.834259,-13748.76