File: raw-data/Sp15_245L_sect-001_group-2-4_bendtest-steel.raw
"Test Type","Manual"
"Method Name:","C:\INSTRON\user\template\245L-Mod01.mtM"
"Name:","4FtPerMin"
"Operator ID:","Jaques"
"Company:","BSU"
"Lab name:",""
"Test date:","2/2/15"
"Temperature:",""
"Humidity:",""
"Note 1:",""
"Note 2:",""
"Note 3:",""
"Geometry:","Circular"
"Specimen",1
"Specimen name:",""
"Width:",6.350000,"mm"
"Thickness:",1.524000,"mm"
"Length:",12,"mm"
"Diameter:",5.000000,"um"
"Inner diameter:",0.500000,"mm"
"Outer diameter:",1.000000,"mm"
"Wall thickness:",0.500000,"mm"
"Area:",19.635,"um*um"
"Linear density:",1.000000,"den"
"Sled weight:",9.806650,"N"
"Loading span:",0.000000,"mm"
"Support span:",1.000000,"mm"
"Span ratio:","2"
"Fixture type:","3-point"
"Comment:",""
"Included"
"Time sec","Extension mm","Load N","Stress MPa","Cycle Count ","Total Cycle Count ","Repetitions Count ","Strain [Exten.] %","Tenacity gf/tex"
0,0,-5.583295,-284354.9,0,0,0,0,-5124.039
0.154,-0.000472222,-5.704967,-290551.6,0,0,0,-0.003935183,-5235.703
0.248,-0.000944444,-5.886434,-299793.6,0,0,0,-0.007870367,-5402.243
0.328,-0.001652777,-6.064299,-308852.3,0,0,0,-0.01377314,-5565.478
0.398,-0.002124999,-6.250886,-318355,0,0,0,-0.01770833,-5736.717
0.488,-0.002833332,-6.422787,-327109.9,0,0,0,-0.0236111,-5894.479
0.53,-0.003305554,-6.632577,-337794.4,0,0,0,-0.02754628,-6087.011
0.56,-0.003777776,-6.824282,-347557.8,0,0,0,-0.03148147,-6262.948
0.606,-0.00472222,-7.034987,-358288.9,0,0,0,-0.03935184,-6456.321
0.644,-0.005194443,-7.235283,-368490,0,0,0,-0.04328702,-6640.142
0.684,-0.005902775,-7.427444,-378276.6,0,0,0,-0.04918979,-6816.496
0.742,-0.006611108,-7.642922,-389250.8,0,0,0,-0.05509257,-7014.251
0.8,-0.007555552,-7.840966,-399337.1,0,0,0,-0.06296293,-7196.004
0.858,-0.008263885,-8.054201,-410197.1,0,0,0,-0.06886571,-7391.699
0.918,-0.008972219,-8.229073,-419103.3,0,0,0,-0.07476849,-7552.188
1,-0.009916663,-8.433556,-429517.5,0,0,0,-0.08263886,-7739.851
1.066,-0.010625,-8.645176,-440295.2,0,0,0,-0.08854163,-7934.063
1.13,-0.01109722,-8.83274,-449847.8,0,0,0,-0.09247681,-8106.199
1.194,-0.01180555,-9.020574,-459414.1,0,0,0,-0.09837959,-8278.583
1.264,-0.01251388,-9.20591,-468853.2,0,0,0,-0.1042824,-8448.675
1.332,-0.01322222,-9.394075,-478436.3,0,0,0,-0.1101851,-8621.361
1.39,-0.01369444,-9.574673,-487634.1,0,0,0,-0.1141203,-8787.104
1.462,-0.01440277,-9.749788,-496552.6,0,0,0,-0.1200231,-8947.815
1.524,-0.0151111,-9.954242,-506965.4,0,0,0,-0.1259259,-9135.452
1.582,-0.01581944,-10.14078,-516465.7,0,0,0,-0.1318286,-9306.646
1.65,-0.01652777,-10.32964,-526084.1,0,0,0,-0.1377314,-9479.968
1.71,-0.01699999,-10.51447,-535497.7,0,0,0,-0.1416666,-9649.601
1.776,-0.01770833,-10.71709,-545816.8,0,0,0,-0.1475694,-9835.548
1.84,-0.01841666,-10.91173,-555730.1,0,0,0,-0.1534722,-10014.18
1.91,-0.01912499,-11.09036,-564827.6,0,0,0,-0.1593749,-10178.12
1.974,-0.01959721,-11.2808,-574526.4,0,0,0,-0.1633101,-10352.89
2.038,-0.02030555,-11.47846,-584593.1,0,0,0,-0.1692129,-10534.29
2.108,-0.02101388,-11.65122,-593391.9,0,0,0,-0.1751157,-10692.85
2.174,-0.02172221,-11.85691,-603867.4,0,0,0,-0.1810184,-10881.61
2.242,-0.02243054,-12.04357,-613374,0,0,0,-0.1869212,-11052.92
2.306,-0.02290277,-12.22313,-622519,0,0,0,-0.1908564,-11217.71
2.368,-0.0236111,-12.41464,-632272.4,0,0,0,-0.1967592,-11393.47
2.436,-0.02431944,-12.59328,-641370.4,0,0,0,-0.202662,-11557.41
2.494,-0.02479165,-12.78322,-651044.1,0,0,0,-0.2065971,-11731.73
2.556,-0.02549999,-12.97195,-660656.2,0,0,0,-0.2124999,-11904.94
2.624,-0.02620832,-13.15489,-669973.3,0,0,0,-0.2184027,-12072.83
2.688,-0.02691665,-13.35785,-680309.9,0,0,0,-0.2243055,-12259.1
2.752,-0.02762499,-13.52646,-688896.8,0,0,0,-0.2302082,-12413.83
2.81,-0.02809721,-13.71416,-698456.5,0,0,0,-0.2341434,-12586.1
2.868,-0.02880554,-13.88434,-707123.5,0,0,0,-0.2400462,-12742.28
2.942,-0.02951388,-14.09242,-717721.2,0,0,0,-0.245949,-12933.24
3.006,-0.0299861,-14.29297,-727934.8,0,0,0,-0.2498841,-13117.29
3.074,-0.03093054,-14.49791,-738372.4,0,0,0,-0.2577545,-13305.38
3.134,-0.03140276,-14.68691,-747998.3,0,0,0,-0.2616897,-13478.83
3.2,-0.0321111,-14.87323,-757487.2,0,0,0,-0.2675925,-13649.82
3.268,-0.03281943,-15.04748,-766361.8,0,0,0,-0.2734953,-13809.74
3.334,-0.03329165,-15.25315,-776836.3,0,0,0,-0.2774304,-13998.49
3.398,-0.03399999,-15.44268,-786489.3,0,0,0,-0.2833332,-14172.44
3.466,-0.03470832,-15.61954,-795496.9,0,0,0,-0.289236,-14334.75
3.528,-0.03518054,-15.82524,-805972.9,0,0,0,-0.2931712,-14523.53
3.598,-0.03588887,-15.98463,-814090.8,0,0,0,-0.299074,-14669.81
3.652,-0.03659721,-16.17603,-823838.3,0,0,0,-0.3049767,-14845.46
3.722,-0.03730554,-16.36335,-833378.3,0,0,0,-0.3108795,-15017.37
3.786,-0.03801387,-16.56902,-843853.3,0,0,0,-0.3167823,-15206.13
3.846,-0.0384861,-16.75213,-853178.8,0,0,0,-0.3207175,-15374.17
3.914,-0.03919443,-16.9281,-862141.3,0,0,0,-0.3266203,-15535.68
3.974,-0.03966665,-17.12945,-872395.8,0,0,0,-0.3305554,-15720.46
4.052,-0.04061109,-17.34743,-883497.5,0,0,0,-0.3384258,-15920.51
4.118,-0.04131943,-17.53569,-893085.4,0,0,0,-0.3443286,-16093.29
4.184,-0.04179165,-17.73514,-903243.2,0,0,0,-0.3482637,-16276.33
4.246,-0.04249998,-17.92769,-913049.8,0,0,0,-0.3541665,-16453.04
4.314,-0.04320832,-18.09729,-921687.4,0,0,0,-0.3600693,-16608.69
4.38,-0.04391665,-18.31779,-932917.3,0,0,0,-0.3659721,-16811.05
4.454,-0.04462499,-18.52481,-943461.1,0,0,0,-0.3718749,-17001.05
4.512,-0.0450972,-18.70516,-952646.1,0,0,0,-0.37581,-17166.56
4.574,-0.04580554,-18.88424,-961766.4,0,0,0,-0.3817128,-17330.91
4.638,-0.04651387,-19.08533,-972008.1,0,0,0,-0.3876156,-17515.46
4.698,-0.04698609,-19.27441,-981637.6,0,0,0,-0.3915508,-17688.99
4.762,-0.04769443,-19.46414,-991300.7,0,0,0,-0.3974535,-17863.11
4.826,-0.04840276,-19.65282,-1000910,0,0,0,-0.4033563,-18036.27
4.904,-0.04911109,-19.85672,-1011295,0,0,0,-0.4092591,-18223.4
4.964,-0.04958331,-20.08368,-1022854,0,0,0,-0.4131942,-18431.69
5.044,-0.05052776,-20.30399,-1034074,0,0,0,-0.4210646,-18633.88
5.122,-0.05123609,-20.50829,-1044479,0,0,0,-0.4269674,-18821.38
5.186,-0.05194442,-20.69726,-1054103,0,0,0,-0.4328702,-18994.8
5.246,-0.05241664,-20.90321,-1064592,0,0,0,-0.4368054,-19183.81
5.308,-0.05312498,-21.10414,-1074825,0,0,0,-0.4427081,-19368.21
5.38,-0.05383331,-21.2946,-1084525,0,0,0,-0.4486109,-19543.01
5.436,-0.05454164,-21.46101,-1093000,0,0,0,-0.4545137,-19695.73
5.504,-0.05524998,-21.66776,-1103530,0,0,0,-0.4604165,-19885.47
5.57,-0.0557222,-21.89116,-1114908,0,0,0,-0.4643517,-20090.5
5.636,-0.05643053,-22.0857,-1124816,0,0,0,-0.4702544,-20269.04
5.69,-0.05713886,-22.28359,-1134894,0,0,0,-0.4761572,-20450.64
5.75,-0.0578472,-22.46031,-1143894,0,0,0,-0.48206,-20612.83
5.808,-0.05831942,-22.65392,-1153755,0,0,0,-0.4859952,-20790.52
5.868,-0.05902775,-22.84672,-1163574,0,0,0,-0.4918979,-20967.46
5.926,-0.05973608,-23.01217,-1172000,0,0,0,-0.4978007,-21119.29
5.982,-0.06020831,-23.18337,-1180720,0,0,0,-0.5017359,-21276.41
6.052,-0.06091664,-23.35669,-1189546,0,0,0,-0.5076387,-21435.47
6.116,-0.06138886,-23.56588,-1200201,0,0,0,-0.5115739,-21627.46
6.174,-0.0620972,-23.72807,-1208461,0,0,0,-0.5174766,-21776.3
6.236,-0.06280552,-23.90225,-1217332,0,0,0,-0.5233794,-21936.16
6.292,-0.06327775,-24.10299,-1227555,0,0,0,-0.5273145,-22120.39
6.366,-0.06398609,-24.28329,-1236738,0,0,0,-0.5332174,-22285.86
6.422,-0.06469441,-24.47565,-1246535,0,0,0,-0.5391201,-22462.39
6.49,-0.06516664,-24.653,-1255567,0,0,0,-0.5430554,-22625.15
6.552,-0.06587497,-24.82444,-1264299,0,0,0,-0.5489581,-22782.5
6.612,-0.06658331,-25.02167,-1274343,0,0,0,-0.5548609,-22963.5
6.68,-0.06705553,-25.21022,-1283946,0,0,0,-0.5587961,-23136.54
6.744,-0.06776386,-25.40078,-1293651,0,0,0,-0.5646988,-23311.43
6.816,-0.0684722,-25.60577,-1304091,0,0,0,-0.5706016,-23499.56
6.882,-0.06918052,-25.77783,-1312854,0,0,0,-0.5765043,-23657.46
6.94,-0.06965275,-25.96239,-1322254,0,0,0,-0.5804396,-23826.84
7.002,-0.07036108,-26.14276,-1331440,0,0,0,-0.5863424,-23992.38
7.066,-0.07106941,-26.30471,-1339688,0,0,0,-0.5922451,-24141
7.128,-0.07154164,-26.49917,-1349592,0,0,0,-0.5961803,-24319.47
7.192,-0.07224997,-26.69778,-1359707,0,0,0,-0.6020831,-24501.74
7.262,-0.0729583,-26.87697,-1368833,0,0,0,-0.6079859,-24666.2
7.318,-0.07343053,-27.0647,-1378394,0,0,0,-0.6119211,-24838.48
7.384,-0.07413886,-27.26801,-1388748,0,0,0,-0.6178238,-25025.06
7.456,-0.07484719,-27.46464,-1398763,0,0,0,-0.6237266,-25205.53
7.52,-0.07555552,-27.65542,-1408479,0,0,0,-0.6296294,-25380.61
7.582,-0.07602775,-27.85177,-1418479,0,0,0,-0.6335645,-25560.81
7.642,-0.07673609,-28.0138,-1426731,0,0,0,-0.6394674,-25709.51
7.708,-0.0772083,-28.21841,-1437152,0,0,0,-0.6434025,-25897.29
7.77,-0.07791664,-28.40695,-1446754,0,0,0,-0.6493053,-26070.32
7.838,-0.07838886,-28.58308,-1455725,0,0,0,-0.6532405,-26231.97
7.898,-0.07909719,-28.77321,-1465408,0,0,0,-0.6591433,-26406.46
7.972,-0.07956942,-28.9417,-1473989,0,0,0,-0.6630785,-26561.09
8.034,-0.08027774,-29.11985,-1483062,0,0,0,-0.6689812,-26724.58
8.09,-0.08098608,-29.32866,-1493697,0,0,0,-0.674884,-26916.22
8.146,-0.0814583,-29.51101,-1502984,0,0,0,-0.6788192,-27083.57
8.202,-0.08216663,-29.70636,-1512933,0,0,0,-0.6847219,-27262.86
8.27,-0.08287497,-29.91053,-1523331,0,0,0,-0.6906247,-27450.22
8.328,-0.08334719,-30.09533,-1532743,0,0,0,-0.6945599,-27619.82
8.386,-0.08405552,-30.27921,-1542108,0,0,0,-0.7004626,-27788.58
8.452,-0.08452775,-30.46755,-1551699,0,0,0,-0.7043979,-27961.43
8.516,-0.08523608,-30.64565,-1560770,0,0,0,-0.7103007,-28124.88
8.58,-0.0857083,-30.82235,-1569770,0,0,0,-0.7142358,-28287.05
8.64,-0.08641663,-31.02728,-1580206,0,0,0,-0.7201386,-28475.12
8.71,-0.08712496,-31.23098,-1590581,0,0,0,-0.7260414,-28662.06
8.77,-0.0878333,-31.44823,-1601645,0,0,0,-0.7319442,-28861.44
8.832,-0.08830551,-31.63566,-1611191,0,0,0,-0.7358793,-29033.45
8.9,-0.08901386,-31.81771,-1620463,0,0,0,-0.7417821,-29200.53
8.958,-0.08948608,-32.02349,-1630943,0,0,0,-0.7457173,-29389.38
9.03,-0.09019441,-32.22857,-1641388,0,0,0,-0.7516201,-29577.59
9.09,-0.09090274,-32.41792,-1651031,0,0,0,-0.7575228,-29751.37
9.148,-0.09161107,-32.62387,-1661520,0,0,0,-0.7634256,-29940.38
9.216,-0.09208329,-32.7985,-1670414,0,0,0,-0.7673607,-30100.64
9.272,-0.09279162,-32.99929,-1680640,0,0,0,-0.7732635,-30284.92
9.34,-0.09349996,-33.19657,-1690687,0,0,0,-0.7791663,-30465.97
9.408,-0.09397218,-33.40164,-1701132,0,0,0,-0.7831016,-30654.17
9.474,-0.09468052,-33.6115,-1711820,0,0,0,-0.7890043,-30846.77
9.532,-0.09538885,-33.78414,-1720612,0,0,0,-0.7949071,-31005.21
9.59,-0.09586107,-33.9956,-1731382,0,0,0,-0.7988423,-31199.28
9.656,-0.0965694,-34.17771,-1740657,0,0,0,-0.804745,-31366.41
9.72,-0.09727774,-34.3652,-1750205,0,0,0,-0.8106478,-31538.48
9.778,-0.09774995,-34.5694,-1760605,0,0,0,-0.8145829,-31725.88
9.844,-0.09845829,-34.75516,-1770066,0,0,0,-0.8204858,-31896.36
9.9,-0.09916662,-34.94322,-1779644,0,0,0,-0.8263885,-32068.95
9.968,-0.09987496,-35.14142,-1789738,0,0,0,-0.8322913,-32250.85
9.992,-0.1001111,-35.22717,-1794105,0,0,0,-0.834259,-32329.55