File: raw-data/Sp15_245L_sec-001_group-01_bendtest-tungsten.raw
"Test Type","Manual"
"Method Name:","C:\INSTRON\user\template\245L-Mod01.mtM"
"Name:","4FtPerMin"
"Operator ID:","Jaques"
"Company:","BSU"
"Lab name:",""
"Test date:","1/26/15"
"Temperature:",""
"Humidity:",""
"Note 1:",""
"Note 2:",""
"Note 3:",""
"Geometry:","Circular"
"Specimen",1
"Specimen name:",""
"Width:",6.350000,"mm"
"Thickness:",1.524000,"mm"
"Length:",12,"mm"
"Diameter:",5.000000,"um"
"Inner diameter:",0.500000,"mm"
"Outer diameter:",1.000000,"mm"
"Wall thickness:",0.500000,"mm"
"Area:",19.635,"um*um"
"Linear density:",1.000000,"den"
"Sled weight:",9.806650,"N"
"Loading span:",0.000000,"mm"
"Support span:",1.000000,"mm"
"Span ratio:","2"
"Fixture type:","3-point"
"Comment:",""
"Included"
"Time sec","Extension mm","Load N","Stress MPa","Cycle Count ","Total Cycle Count ","Repetitions Count ","Strain [Exten.] %","Tenacity gf/tex"
0,0,-5.158131,-262701.5,0,0,0,0,-4733.847
0.052,0,-5.131649,-261352.8,0,0,0,0,-4709.543
0.104,0,-5.188565,-264251.4,0,0,0,0,-4761.777
0.154,0,-5.124211,-260973.9,0,0,0,0,-4702.717
0.212,0,-5.237714,-266754.6,0,0,0,0,-4806.884
0.28,-0.000472222,-5.264143,-268100.6,0,0,0,-0.003935183,-4831.139
0.338,-0.000944444,-5.361426,-273055.2,0,0,0,-0.007870367,-4920.42
0.382,-0.000944444,-5.487858,-279494.3,0,0,0,-0.007870367,-5036.452
0.448,-0.001652777,-5.556521,-282991.3,0,0,0,-0.01377314,-5099.467
0.48,-0.002597221,-5.705109,-290558.8,0,0,0,-0.02164351,-5235.833
0.516,-0.003541665,-5.831568,-296999.3,0,0,0,-0.02951388,-5351.89
0.54,-0.004249998,-5.943013,-302675.2,0,0,0,-0.03541665,-5454.168
0.57,-0.005194443,-6.063282,-308800.4,0,0,0,-0.04328702,-5564.544
0.608,-0.005902775,-6.189564,-315231.9,0,0,0,-0.04918979,-5680.438
0.664,-0.006611108,-6.282691,-319974.8,0,0,0,-0.05509257,-5765.906
0.736,-0.007319441,-6.324824,-322120.7,0,0,0,-0.06099534,-5804.573
0.774,-0.007555552,-6.429263,-327439.7,0,0,0,-0.06296293,-5900.422
0.848,-0.008263885,-6.459026,-328955.5,0,0,0,-0.06886571,-5927.736
0.916,-0.008972219,-6.54109,-333135,0,0,0,-0.07476849,-6003.05
0.966,-0.00944444,-6.642693,-338309.6,0,0,0,-0.07870367,-6096.295
1.044,-0.01015277,-6.736059,-343064.7,0,0,0,-0.08460645,-6181.981
1.118,-0.01109722,-6.825317,-347610.5,0,0,0,-0.09247681,-6263.897
1.188,-0.01180555,-6.930307,-352957.7,0,0,0,-0.09837959,-6360.252
1.254,-0.01227777,-7.024215,-357740.3,0,0,0,-0.1023148,-6446.436
1.33,-0.01322222,-7.112421,-362232.6,0,0,0,-0.1101851,-6527.386
1.414,-0.01393055,-7.201148,-366751.5,0,0,0,-0.1160879,-6608.815
1.472,-0.01463888,-7.288917,-371221.5,0,0,0,-0.1219907,-6689.365
1.534,-0.01534721,-7.381016,-375912.1,0,0,0,-0.1278935,-6773.888
1.612,-0.01605555,-7.458893,-379878.3,0,0,0,-0.1337962,-6845.358
1.662,-0.01676388,-7.551029,-384570.8,0,0,0,-0.139699,-6929.917
1.724,-0.01747222,-7.640674,-389136.3,0,0,0,-0.1456018,-7012.187
1.786,-0.01818055,-7.723401,-393349.6,0,0,0,-0.1515046,-7088.109
1.868,-0.01888888,-7.806321,-397572.7,0,0,0,-0.1574073,-7164.208
1.928,-0.0193611,-7.913773,-403045.2,0,0,0,-0.1613425,-7262.822
2.006,-0.02030555,-7.993884,-407125.2,0,0,0,-0.1692129,-7336.344
2.086,-0.02101388,-8.082958,-411661.7,0,0,0,-0.1751157,-7418.091
2.16,-0.02172221,-8.173883,-416292.4,0,0,0,-0.1810184,-7501.537
2.214,-0.02243054,-8.268264,-421099.3,0,0,0,-0.1869212,-7588.155
2.288,-0.02313888,-8.349968,-425260.4,0,0,0,-0.192824,-7663.138
2.364,-0.02384721,-8.449115,-430309.9,0,0,0,-0.1987268,-7754.129
2.444,-0.02455555,-8.546841,-435287.1,0,0,0,-0.2046295,-7843.817
2.512,-0.02526388,-8.631187,-439582.7,0,0,0,-0.2105323,-7921.225
2.592,-0.02620832,-8.718374,-444023.2,0,0,0,-0.2184027,-8001.241
2.674,-0.02691665,-8.82499,-449453.1,0,0,0,-0.2243055,-8099.087
2.756,-0.02762499,-8.912105,-453889.8,0,0,0,-0.2302082,-8179.036
2.82,-0.02833332,-9.002212,-458478.9,0,0,0,-0.236111,-8261.73
2.906,-0.02927776,-9.094995,-463204.3,0,0,0,-0.2439814,-8346.883
2.958,-0.02974999,-9.184434,-467759.4,0,0,0,-0.2479166,-8428.965
3.052,-0.03069443,-9.268385,-472035,0,0,0,-0.2557869,-8506.011
3.116,-0.03140276,-9.367854,-477100.9,0,0,0,-0.2616897,-8597.298
3.184,-0.0321111,-9.449901,-481279.5,0,0,0,-0.2675925,-8672.596
3.258,-0.03281943,-9.532634,-485493.1,0,0,0,-0.2734953,-8748.523
3.332,-0.03352777,-9.619359,-489909.9,0,0,0,-0.2793981,-8828.114
3.39,-0.0342361,-9.709978,-494525.2,0,0,0,-0.2853008,-8911.28
3.464,-0.03494443,-9.804301,-499329,0,0,0,-0.2912036,-8997.844
3.54,-0.03541665,-9.835803,-500933.3,0,0,0,-0.2951388,-9026.755
3.62,-0.03612498,-9.916247,-505030.3,0,0,0,-0.3010415,-9100.582
3.692,-0.03659721,-10.01162,-509887.7,0,0,0,-0.3049767,-9188.111
3.762,-0.03730554,-10.11025,-514911,0,0,0,-0.3108795,-9278.631
3.832,-0.03824999,-10.19237,-519093,0,0,0,-0.3187499,-9353.99
3.904,-0.03895832,-10.27803,-523456,0,0,0,-0.3246527,-9432.611
3.974,-0.03966665,-10.37138,-528209.9,0,0,0,-0.3305554,-9518.275
4.052,-0.04037498,-10.45042,-532235.3,0,0,0,-0.3364582,-9590.813
4.122,-0.04108332,-10.5396,-536777.5,0,0,0,-0.342361,-9672.662
4.184,-0.04179165,-10.62268,-541008.7,0,0,0,-0.3482637,-9748.907
4.27,-0.04249998,-10.71232,-545574.1,0,0,0,-0.3541665,-9831.176
4.33,-0.04320832,-10.80263,-550173.3,0,0,0,-0.3600693,-9914.053
4.408,-0.04391665,-10.89308,-554779.9,0,0,0,-0.3659721,-9997.063
4.486,-0.04486109,-10.97881,-559146.1,0,0,0,-0.3738424,-10075.74
4.566,-0.04556942,-11.07481,-564035.3,0,0,0,-0.3797452,-10163.84
4.624,-0.04627776,-11.16503,-568630.5,0,0,0,-0.385648,-10246.65
4.698,-0.04698609,-11.24869,-572890.9,0,0,0,-0.3915508,-10323.42
4.768,-0.04769443,-11.33362,-577216.8,0,0,0,-0.3974535,-10401.37
4.826,-0.04816664,-11.41808,-581517.8,0,0,0,-0.4013887,-10478.88
4.904,-0.04911109,-11.50269,-585826.9,0,0,0,-0.4092591,-10556.53
4.968,-0.04981942,-11.58508,-590023.4,0,0,0,-0.4151618,-10632.15
5.034,-0.05052776,-11.67862,-594787.2,0,0,0,-0.4210646,-10717.99
5.114,-0.05123609,-11.76139,-599002.8,0,0,0,-0.4269674,-10793.95
5.19,-0.05194442,-11.8455,-603286.1,0,0,0,-0.4328702,-10871.14
5.26,-0.05265275,-11.93222,-607702.9,0,0,0,-0.4387729,-10950.73
5.336,-0.05336109,-12.01032,-611680.4,0,0,0,-0.4446757,-11022.4
5.416,-0.05406942,-12.10296,-616398.9,0,0,0,-0.4505785,-11107.43
5.482,-0.05454164,-12.19144,-620904.9,0,0,0,-0.4545137,-11188.63
5.558,-0.05548609,-12.27747,-625286.7,0,0,0,-0.4623841,-11267.59
5.636,-0.05619442,-12.37594,-630301.5,0,0,0,-0.4682868,-11357.95
5.706,-0.05690275,-12.46512,-634843.4,0,0,0,-0.4741896,-11439.8
5.78,-0.05761109,-12.55223,-639279.8,0,0,0,-0.4800924,-11519.74
5.85,-0.05831942,-12.6372,-643607.1,0,0,0,-0.4859952,-11597.72
5.92,-0.05902775,-12.73817,-648749.8,0,0,0,-0.4918979,-11690.39
5.992,-0.05973608,-12.83873,-653871.2,0,0,0,-0.4978007,-11782.68
6.068,-0.06044442,-12.90883,-657441.5,0,0,0,-0.5037035,-11847.01
6.144,-0.06115275,-12.99094,-661623.2,0,0,0,-0.5096063,-11922.37
6.196,-0.06186108,-13.08225,-666273.8,0,0,0,-0.515509,-12006.17
6.278,-0.06256942,-13.16864,-670673.4,0,0,0,-0.5214118,-12085.45
6.348,-0.06327775,-13.24934,-674783.3,0,0,0,-0.5273145,-12159.51
6.43,-0.0642222,-13.34549,-679680,0,0,0,-0.535185,-12247.75
6.49,-0.06469441,-13.44538,-684767.4,0,0,0,-0.5391201,-12339.42
6.554,-0.06540275,-13.52738,-688943.7,0,0,0,-0.5450229,-12414.68
6.638,-0.06611108,-13.61378,-693344.3,0,0,0,-0.5509257,-12493.97
6.71,-0.06705553,-13.67844,-696637.1,0,0,0,-0.5587961,-12553.31
6.76,-0.06752774,-13.78133,-701877.6,0,0,0,-0.5627312,-12647.74
6.834,-0.06823608,-13.86931,-706358.4,0,0,0,-0.568634,-12728.49
6.916,-0.06918052,-13.92658,-709274.9,0,0,0,-0.5765043,-12781.04
6.962,-0.06965275,-14.04624,-715369.3,0,0,0,-0.5804396,-12890.86
7.04,-0.07036108,-14.1324,-719757.4,0,0,0,-0.5863424,-12969.94
7.12,-0.07106941,-14.2193,-724183.1,0,0,0,-0.5922451,-13049.69
7.182,-0.07201386,-14.31357,-728984.1,0,0,0,-0.6001155,-13136.2
7.238,-0.07248608,-14.41776,-734290.5,0,0,0,-0.6040506,-13231.82
7.326,-0.07343053,-14.49374,-738160,0,0,0,-0.6119211,-13301.55
7.408,-0.07413886,-14.58174,-742642.1,0,0,0,-0.6178238,-13382.32
7.488,-0.07484719,-14.65904,-746578.9,0,0,0,-0.6237266,-13453.26
7.564,-0.07555552,-14.7492,-751170.8,0,0,0,-0.6296294,-13536
7.644,-0.07626386,-14.83971,-755780,0,0,0,-0.6355321,-13619.06
7.718,-0.0772083,-14.93894,-760834.1,0,0,0,-0.6434025,-13710.13
7.786,-0.07791664,-15.01805,-764863.1,0,0,0,-0.6493053,-13782.73
7.862,-0.07862496,-15.12603,-770362.6,0,0,0,-0.655208,-13881.83
7.942,-0.0793333,-15.19775,-774015.2,0,0,0,-0.6611109,-13947.66
7.986,-0.07980552,-15.28601,-778510.2,0,0,0,-0.665046,-14028.65
8.068,-0.08051386,-15.37428,-783005.9,0,0,0,-0.6709488,-14109.67
8.158,-0.0814583,-15.46279,-787513.4,0,0,0,-0.6788192,-14190.89
8.234,-0.08216663,-15.54417,-791658.2,0,0,0,-0.6847219,-14265.58
8.296,-0.08287497,-15.63651,-796361.2,0,0,0,-0.6906247,-14350.33
8.368,-0.0835833,-15.73707,-801482.6,0,0,0,-0.6965275,-14442.61
8.444,-0.08429163,-15.81729,-805568,0,0,0,-0.7024302,-14516.23
8.526,-0.08523608,-15.88636,-809085.6,0,0,0,-0.7103007,-14579.62
8.576,-0.0857083,-15.97324,-813510.4,0,0,0,-0.7142358,-14659.35
8.646,-0.08641663,-16.05503,-817675.8,0,0,0,-0.7201386,-14734.41
8.722,-0.08712496,-16.12965,-821476.6,0,0,0,-0.7260414,-14802.9
8.84,-0.08830551,-16.09889,-819909.8,0,0,0,-0.7358793,-14774.67
8.94,-0.08924997,-16.17664,-823869.8,0,0,0,-0.7437497,-14846.03
9.002,-0.08995829,-16.26539,-828389.6,0,0,0,-0.7496524,-14927.47
9.1,-0.09090274,-16.33253,-831809,0,0,0,-0.7575228,-14989.09
9.168,-0.09161107,-16.41976,-836251.3,0,0,0,-0.7634256,-15069.14
9.304,-0.09302774,-16.45781,-838189.4,0,0,0,-0.7752311,-15104.07
9.346,-0.09326385,-16.33896,-832136.2,0,0,0,-0.7771988,-14994.99
9.368,-0.09349996,-16.22086,-826121.8,0,0,0,-0.7791663,-14886.61
9.496,-0.09491662,-16.21449,-825797.4,0,0,0,-0.7909719,-14880.76
9.596,-0.09586107,-16.29777,-830038.4,0,0,0,-0.7988423,-14957.19
9.686,-0.09680552,-16.38389,-834424.7,0,0,0,-0.8067126,-15036.23
9.768,-0.09751385,-16.46677,-838645.6,0,0,0,-0.8126154,-15112.29
9.812,-0.09822218,-16.55144,-842958.1,0,0,0,-0.8185182,-15190
9.884,-0.09893051,-16.63465,-847195.6,0,0,0,-0.8244209,-15266.36
9.958,-0.09987496,-16.71332,-851202.5,0,0,0,-0.8322913,-15338.56
9.978,-0.1001111,-16.74446,-852788.2,0,0,0,-0.834259,-15367.13
"Specimen",2
"Specimen name:",""
"Width:",6.350000,"mm"
"Thickness:",1.524000,"mm"
"Length:",12,"mm"
"Diameter:",5.000000,"um"
"Inner diameter:",0.500000,"mm"
"Outer diameter:",1.000000,"mm"
"Wall thickness:",0.500000,"mm"
"Area:",19.635,"um*um"
"Linear density:",1.000000,"den"
"Sled weight:",9.806650,"N"
"Loading span:",0.000000,"mm"
"Support span:",1.000000,"mm"
"Span ratio:","2"
"Fixture type:","3-point"
"Comment:",""
"Included"
"Time sec","Extension mm","Load N","Stress MPa","Cycle Count ","Total Cycle Count ","Repetitions Count ","Strain [Exten.] %","Tenacity gf/tex"
0,-0.7815275,-4.753184,-242077.7,0,0,0,-6.512729,-4362.209
0.428,-0.7836524,-5.136715,-261610.8,0,0,0,-6.530437,-4714.193
0.828,-0.7895553,-5.434631,-276783.5,0,0,0,-6.579627,-4987.604
1.43,-0.7956941,-5.750309,-292860.8,0,0,0,-6.630785,-5277.315
1.998,-0.8013607,-6.052801,-308266.7,0,0,0,-6.678006,-5554.926
2.588,-0.8072635,-6.354592,-323636.7,0,0,0,-6.727196,-5831.892
3.19,-0.8134024,-6.673092,-339857.8,0,0,0,-6.778354,-6124.194
3.708,-0.8185968,-6.894602,-351139.2,0,0,0,-6.82164,-6327.484
4.166,-0.8233191,-7.178339,-365589.8,0,0,0,-6.860993,-6587.882
4.75,-0.8289857,-7.46792,-380338.1,0,0,0,-6.908215,-6853.643
5.348,-0.8348886,-7.766636,-395551.5,0,0,0,-6.957405,-7127.788
5.92,-0.8405552,-8.047686,-409865.3,0,0,0,-7.004627,-7385.72
6.516,-0.8464579,-8.349101,-425216.2,0,0,0,-7.053816,-7662.342
7.068,-0.8521246,-8.660608,-441081.2,0,0,0,-7.101039,-7948.226
7.552,-0.857083,-8.933268,-454967.6,0,0,0,-7.142358,-8198.459
8.102,-0.8627497,-9.220248,-469583.4,0,0,0,-7.18958,-8461.833
8.654,-0.8681801,-9.515991,-484645.5,0,0,0,-7.234835,-8733.25
9.18,-0.8733746,-9.784237,-498307.1,0,0,0,-7.278121,-8979.431
9.804,-0.8792774,-10.11698,-515253.8,0,0,0,-7.327312,-9284.808
10.374,-0.8851802,-10.38388,-528846.4,0,0,0,-7.376502,-9529.745
10.934,-0.8908468,-10.68705,-544286.9,0,0,0,-7.423723,-9807.98
11.528,-0.8969857,-10.97479,-558941.7,0,0,0,-7.474881,-10072.06
12.026,-0.9019441,-11.23516,-572202.2,0,0,0,-7.516201,-10311.01
12.634,-0.9078468,-11.54485,-587974.6,0,0,0,-7.565391,-10595.23
13.144,-0.9128052,-11.80239,-601091.1,0,0,0,-7.60671,-10831.58
13.728,-0.9184719,-12.10295,-616398.3,0,0,0,-7.653932,-11107.42
14.154,-0.9229579,-12.33029,-627976.3,0,0,0,-7.691316,-11316.05
14.584,-0.9272079,-12.55871,-639609.8,0,0,0,-7.726733,-11525.69
15.146,-0.9328746,-12.84905,-654396.7,0,0,0,-7.773955,-11792.14
15.758,-0.9390135,-13.15883,-670173.8,0,0,0,-7.825112,-12076.45
16.32,-0.9446801,-13.46453,-685742.8,0,0,0,-7.872334,-12357
16.836,-0.9501107,-13.7034,-697908.3,0,0,0,-7.917589,-12576.22
17.108,-0.9527079,-13.80589,-703128.4,0,0,0,-7.939233,-12670.29
17.486,-0.9564857,-13.9948,-712749.4,0,0,0,-7.970714,-12843.65
17.968,-0.9609718,-14.24728,-725608.1,0,0,0,-8.008099,-13075.37
18.532,-0.9671107,-14.54852,-740949.8,0,0,0,-8.059256,-13351.82
19.182,-0.9732496,-14.85457,-756537.1,0,0,0,-8.110414,-13632.7
19.754,-0.9789163,-15.15305,-771738.3,0,0,0,-8.157636,-13906.63
20.398,-0.9852913,-15.47202,-787983.5,0,0,0,-8.21076,-14199.36
20.896,-0.9902495,-15.72348,-800790.3,0,0,0,-8.252079,-14430.14
21.388,-0.9952079,-15.97762,-813733.3,0,0,0,-8.293399,-14663.37
21.816,-0.9994578,-16.19013,-824556.4,0,0,0,-8.328815,-14858.4
22.39,-1.005361,-16.5021,-840444.9,0,0,0,-8.378006,-15144.71
22.662,-1.007958,-16.61861,-846378.9,0,0,0,-8.39965,-15251.64
22.998,-1.011263,-16.761,-853630.7,0,0,0,-8.427196,-15382.32
23.116,-1.012444,-16.66864,-848927,0,0,0,-8.437033,-15297.56
23.394,-1.015277,-16.93912,-862702.1,0,0,0,-8.460644,-15545.78
23.748,-1.018819,-17.12945,-872395.5,0,0,0,-8.490158,-15720.46
24.224,-1.023777,-17.39519,-885929.9,0,0,0,-8.531478,-15964.34
24.678,-1.028263,-17.58575,-895634.8,0,0,0,-8.568862,-16139.22
25.116,-1.03275,-17.82396,-907766.8,0,0,0,-8.606247,-16357.84
25.586,-1.037472,-18.08964,-921297.9,0,0,0,-8.645598,-16601.67
26.138,-1.043138,-18.33846,-933970.3,0,0,0,-8.69282,-16830.03
26.432,-1.045736,-18.50651,-942528.6,0,0,0,-8.714463,-16984.25
26.77,-1.048805,-18.70057,-952412,0,0,0,-8.740043,-17162.34
27.04,-1.051875,-18.83038,-959023.4,0,0,0,-8.765621,-17281.48
27.408,-1.055652,-18.9819,-966740.3,0,0,0,-8.797103,-17420.54
27.868,-1.059902,-19.21265,-978492.2,0,0,0,-8.83252,-17632.3
28.404,-1.065333,-19.51,-993636,0,0,0,-8.877774,-17905.2
28.94,-1.070763,-19.77691,-1007230,0,0,0,-8.923028,-18150.15
29.52,-1.076666,-20.0705,-1022182,0,0,0,-8.972219,-18419.6
30.082,-1.082569,-20.3429,-1036056,0,0,0,-9.021408,-18669.59
30.634,-1.087763,-20.56201,-1047215,0,0,0,-9.064695,-18870.68
31.164,-1.09343,-20.85842,-1062311,0,0,0,-9.111917,-19142.7
31.748,-1.098861,-21.13342,-1076316,0,0,0,-9.157171,-19395.08
32.334,-1.104763,-21.44961,-1092420,0,0,0,-9.206362,-19685.26
32.926,-1.110666,-21.72549,-1106470,0,0,0,-9.255551,-19938.45
33.46,-1.116333,-22.03023,-1121991,0,0,0,-9.302774,-20218.13
34.012,-1.121763,-22.29927,-1135693,0,0,0,-9.348029,-20465.04
34.328,-1.125069,-22.22746,-1132036,0,0,0,-9.375575,-20399.13
34.83,-1.130027,-22.52242,-1147057,0,0,0,-9.416894,-20669.83
35.39,-1.135222,-22.75912,-1159113,0,0,0,-9.460181,-20887.06
35.972,-1.141125,-23.05676,-1174271,0,0,0,-9.509371,-21160.21
36.552,-1.147027,-23.35196,-1189305,0,0,0,-9.558561,-21431.13
37.116,-1.152694,-23.59449,-1201658,0,0,0,-9.605783,-21653.72
37.738,-1.159069,-23.88393,-1216399,0,0,0,-9.658908,-21919.35
38.362,-1.165208,-24.18907,-1231939,0,0,0,-9.710065,-22199.39
39,-1.171583,-24.50128,-1247840,0,0,0,-9.76319,-22485.92
39.624,-1.177722,-24.80493,-1263305,0,0,0,-9.814347,-22764.59
40.216,-1.183388,-25.0626,-1276428,0,0,0,-9.861569,-23001.06
40.882,-1.190236,-25.37597,-1292388,0,0,0,-9.91863,-23288.66
41.516,-1.196611,-25.67818,-1307779,0,0,0,-9.971755,-23566.01
42.174,-1.203458,-25.99242,-1323783,0,0,0,-10.02882,-23854.4
42.84,-1.210069,-26.2856,-1338715,0,0,0,-10.08391,-24123.47
43.494,-1.216444,-26.55046,-1352204,0,0,0,-10.13703,-24366.54
44.11,-1.222583,-26.80703,-1365271,0,0,0,-10.18819,-24602.01
44.76,-1.228958,-27.10676,-1380536,0,0,0,-10.24132,-24877.09
45.346,-1.234861,-27.40676,-1395815,0,0,0,-10.29051,-25152.4
46.056,-1.241944,-27.70778,-1411146,0,0,0,-10.34953,-25428.67
46.738,-1.248791,-28.04534,-1428337,0,0,0,-10.40659,-25738.46
47.33,-1.25493,-28.34688,-1443695,0,0,0,-10.45775,-26015.19
47.966,-1.261069,-28.61848,-1457527,0,0,0,-10.50891,-26264.46
48.624,-1.26768,-28.90272,-1472003,0,0,0,-10.564,-26525.31
49.28,-1.274291,-29.20414,-1487355,0,0,0,-10.61909,-26801.94
49.83,-1.279722,-29.43949,-1499341,0,0,0,-10.66435,-27017.93
50.43,-1.286097,-29.67515,-1511343,0,0,0,-10.71747,-27234.21
50.826,-1.289874,-29.90381,-1522989,0,0,0,-10.74895,-27444.06
51.19,-1.293416,-30.07322,-1531617,0,0,0,-10.77847,-27599.54
51.654,-1.298138,-30.2245,-1539321,0,0,0,-10.81782,-27738.38
51.922,-1.300972,-30.38865,-1547681,0,0,0,-10.84143,-27889.02
52.272,-1.304277,-30.5365,-1555211,0,0,0,-10.86898,-28024.71
52.71,-1.308527,-30.79209,-1568228,0,0,0,-10.90439,-28259.27
53.064,-1.311833,-30.94608,-1576071,0,0,0,-10.93194,-28400.6
53.586,-1.317263,-31.20486,-1589250,0,0,0,-10.97719,-28638.09
54.126,-1.322694,-31.47658,-1603089,0,0,0,-11.02245,-28887.46
54.622,-1.327652,-31.72651,-1615818,0,0,0,-11.06377,-29116.83
55.162,-1.333083,-31.92633,-1625995,0,0,0,-11.10902,-29300.22
55.65,-1.338277,-32.19353,-1639603,0,0,0,-11.15231,-29545.44
[...]
0.578,-0.005666665,-5.586375,-284511.8,0,0,0,-0.0472222,-5126.866
0.61,-0.006138886,-5.628607,-286662.6,0,0,0,-0.05115739,-5165.624
0.672,-0.00684722,-5.636846,-287082.2,0,0,0,-0.05706016,-5173.185
0.726,-0.00708333,-5.657903,-288154.7,0,0,0,-0.05902775,-5192.51
0.794,-0.007791664,-5.683823,-289474.7,0,0,0,-0.06493053,-5216.297
0.856,-0.008263885,-5.72018,-291326.4,0,0,0,-0.06886571,-5249.665
0.936,-0.00920833,-5.752524,-292973.7,0,0,0,-0.07673608,-5279.348
1,-0.009916663,-5.783009,-294526.3,0,0,0,-0.08263886,-5307.326
1.066,-0.010625,-5.819038,-296361.2,0,0,0,-0.08854163,-5340.391
1.122,-0.01109722,-5.860176,-298456.3,0,0,0,-0.09247681,-5378.145
1.204,-0.01204166,-5.876195,-299272.2,0,0,0,-0.1003472,-5392.846
1.29,-0.01298611,-5.899264,-300447.1,0,0,0,-0.1082175,-5414.018
1.35,-0.01369444,-5.930874,-302057,0,0,0,-0.1141203,-5443.028
1.414,-0.01440277,-5.960716,-303576.8,0,0,0,-0.1200231,-5470.415
1.48,-0.0151111,-5.971924,-304147.6,0,0,0,-0.1259259,-5480.701
1.52,-0.01534721,-6.020951,-306644.5,0,0,0,-0.1278935,-5525.695
1.614,-0.01629166,-6.050245,-308136.4,0,0,0,-0.1357638,-5552.58
1.688,-0.01699999,-6.059175,-308591.3,0,0,0,-0.1416666,-5560.775
1.73,-0.01747222,-6.108462,-311101.4,0,0,0,-0.1456018,-5606.008
1.796,-0.01794444,-6.095573,-310445,0,0,0,-0.149537,-5594.179
1.836,-0.01841666,-6.151571,-313297,0,0,0,-0.1534722,-5645.571
1.918,-0.01912499,-6.135604,-312483.8,0,0,0,-0.1593749,-5630.917
1.972,-0.01959721,-6.185174,-315008.3,0,0,0,-0.1633101,-5676.41
2.022,-0.02006944,-6.226632,-317119.8,0,0,0,-0.1672453,-5714.458
2.094,-0.02077777,-6.238485,-317723.4,0,0,0,-0.1731481,-5725.335
2.156,-0.02124999,-6.277127,-319691.4,0,0,0,-0.1770833,-5760.799
2.206,-0.02195833,-6.302664,-320992.1,0,0,0,-0.1829861,-5784.236
2.28,-0.02266666,-6.331504,-322460.8,0,0,0,-0.1888888,-5810.704
2.354,-0.02337499,-6.36264,-324046.6,0,0,0,-0.1947916,-5839.279
2.428,-0.02408332,-6.38433,-325151.3,0,0,0,-0.2006944,-5859.184
2.486,-0.02479165,-6.435716,-327768.3,0,0,0,-0.2065971,-5906.343
2.56,-0.02549999,-6.476184,-329829.3,0,0,0,-0.2124999,-5943.483
2.636,-0.02620832,-6.48925,-330494.8,0,0,0,-0.2184027,-5955.474
2.722,-0.02691665,-6.535666,-332858.7,0,0,0,-0.2243055,-5998.072
2.786,-0.02762499,-6.564389,-334321.6,0,0,0,-0.2302082,-6024.433
2.868,-0.02856943,-6.607519,-336518.2,0,0,0,-0.2380786,-6064.014
2.938,-0.02927776,-6.637997,-338070.4,0,0,0,-0.2439814,-6091.986
3.032,-0.03022221,-6.673803,-339894,0,0,0,-0.2518517,-6124.846
3.102,-0.03093054,-6.712502,-341864.9,0,0,0,-0.2577545,-6160.363
3.174,-0.03163887,-6.732008,-342858.3,0,0,0,-0.2636573,-6178.264
3.234,-0.0321111,-6.767877,-344685.2,0,0,0,-0.2675925,-6211.183
3.29,-0.03281943,-6.802954,-346471.6,0,0,0,-0.2734953,-6243.375
3.356,-0.03329165,-6.823258,-347505.7,0,0,0,-0.2774304,-6262.009
3.424,-0.03399999,-6.856675,-349207.6,0,0,0,-0.2833332,-6292.677
3.476,-0.03470832,-6.882583,-350527.1,0,0,0,-0.289236,-6316.453
3.558,-0.03541665,-6.924659,-352670,0,0,0,-0.2951388,-6355.068
3.642,-0.0363611,-6.955392,-354235.2,0,0,0,-0.3030091,-6383.273
3.712,-0.03706943,-6.984049,-355694.7,0,0,0,-0.3089119,-6409.573
3.782,-0.03777776,-7.012374,-357137.3,0,0,0,-0.3148147,-6435.568
3.856,-0.0384861,-7.048163,-358960,0,0,0,-0.3207175,-6468.413
3.93,-0.03919443,-7.087706,-360973.9,0,0,0,-0.3266203,-6504.704
3.976,-0.03966665,-7.097606,-361478.1,0,0,0,-0.3305554,-6513.79
4.022,-0.04013887,-7.136024,-363434.7,0,0,0,-0.3344906,-6549.047
4.102,-0.0408472,-7.165356,-364928.6,0,0,0,-0.3403934,-6575.966
4.17,-0.04155554,-7.190718,-366220.3,0,0,0,-0.3462962,-6599.243
4.218,-0.04202776,-7.20983,-367193.6,0,0,0,-0.3502313,-6616.782
4.258,-0.04249998,-7.232297,-368337.9,0,0,0,-0.3541665,-6637.402
4.326,-0.04320832,-7.256456,-369568.3,0,0,0,-0.3600693,-6659.573
4.394,-0.04368054,-7.306172,-372100.3,0,0,0,-0.3640045,-6705.2
4.468,-0.04462499,-7.320412,-372825.5,0,0,0,-0.3718749,-6718.268
4.526,-0.0450972,-7.332923,-373462.7,0,0,0,-0.37581,-6729.75
4.576,-0.04556942,-7.3725,-375478.3,0,0,0,-0.3797452,-6766.072
4.668,-0.04651387,-7.411424,-377460.7,0,0,0,-0.3876156,-6801.794
4.752,-0.04745831,-7.44729,-379287.4,0,0,0,-0.3954859,-6834.71
4.822,-0.04816664,-7.47769,-380835.7,0,0,0,-0.4013887,-6862.61
4.902,-0.04887498,-7.525897,-383290.8,0,0,0,-0.4072915,-6906.852
4.984,-0.04981942,-7.559003,-384976.9,0,0,0,-0.4151618,-6937.234
5.068,-0.05052776,-7.608889,-387517.5,0,0,0,-0.4210646,-6983.017
5.126,-0.05123609,-7.613115,-387732.8,0,0,0,-0.4269674,-6986.896
5.178,-0.05170831,-7.649285,-389574.9,0,0,0,-0.4309026,-7020.09
5.226,-0.05194442,-7.646092,-389412.3,0,0,0,-0.4328702,-7017.159
5.302,-0.05288887,-7.673124,-390789,0,0,0,-0.4407406,-7041.968
5.344,-0.05336109,-7.720734,-393213.8,0,0,0,-0.4446757,-7085.662
5.426,-0.05430553,-7.749699,-394688.9,0,0,0,-0.4525461,-7112.244
5.518,-0.05524998,-7.791318,-396808.6,0,0,0,-0.4604165,-7150.44
5.61,-0.05619442,-7.817347,-398134.2,0,0,0,-0.4682868,-7174.328
5.678,-0.05666664,-7.819271,-398232.2,0,0,0,-0.472222,-7176.093
5.718,-0.05713886,-7.857847,-400196.9,0,0,0,-0.4761572,-7211.497
5.792,-0.0578472,-7.895126,-402095.5,0,0,0,-0.48206,-7245.709
5.862,-0.05855553,-7.909724,-402838.9,0,0,0,-0.4879628,-7259.106
5.924,-0.05902775,-7.951947,-404989.3,0,0,0,-0.4918979,-7297.856
5.996,-0.05997219,-7.986952,-406772.1,0,0,0,-0.4997683,-7329.981
6.088,-0.06091664,-8.010866,-407990.1,0,0,0,-0.5076387,-7351.929
6.16,-0.06162497,-8.056261,-410302,0,0,0,-0.5135415,-7393.59
6.24,-0.06233331,-8.067478,-410873.3,0,0,0,-0.5194442,-7403.885
6.286,-0.06280552,-8.100744,-412567.5,0,0,0,-0.5233794,-7434.414
6.346,-0.06327775,-8.114292,-413257.5,0,0,0,-0.5273145,-7446.848
6.404,-0.06398609,-8.138394,-414485,0,0,0,-0.5332174,-7468.967
6.474,-0.06469441,-8.174649,-416331.5,0,0,0,-0.5391201,-7502.24
6.566,-0.06563886,-8.203818,-417817.1,0,0,0,-0.5469905,-7529.01
6.638,-0.06634719,-8.234998,-419405,0,0,0,-0.5528933,-7557.625
6.73,-0.06729164,-8.273807,-421381.6,0,0,0,-0.5607637,-7593.242
6.826,-0.06823608,-8.302893,-422862.9,0,0,0,-0.568634,-7619.936
6.892,-0.06894442,-8.349837,-425253.7,0,0,0,-0.5745368,-7663.018
6.976,-0.06965275,-8.386661,-427129.2,0,0,0,-0.5804396,-7696.813
7.062,-0.0705972,-8.421104,-428883.3,0,0,0,-0.58831,-7728.423
7.124,-0.07130553,-8.44982,-430345.8,0,0,0,-0.5942127,-7754.776
7.194,-0.07177775,-8.484244,-432099,0,0,0,-0.5981479,-7786.369
7.266,-0.07272219,-8.513438,-433585.8,0,0,0,-0.6060182,-7813.161
7.334,-0.07343053,-8.549114,-435402.8,0,0,0,-0.6119211,-7845.903
7.418,-0.07413886,-8.574517,-436696.6,0,0,0,-0.6178238,-7869.216
7.494,-0.0750833,-8.603902,-438193.1,0,0,0,-0.6256942,-7896.184
7.57,-0.07579163,-8.642396,-440153.6,0,0,0,-0.6315969,-7931.512
7.63,-0.07649997,-8.660904,-441096.2,0,0,0,-0.6374997,-7948.498
7.722,-0.07744441,-8.689997,-442577.9,0,0,0,-0.6453701,-7975.198
7.786,-0.07791664,-8.727347,-444480.1,0,0,0,-0.6493053,-8009.475
7.858,-0.07886108,-8.750833,-445676.3,0,0,0,-0.6571757,-8031.029
7.924,-0.0793333,-8.783338,-447331.7,0,0,0,-0.6611109,-8060.861
8.002,-0.08027774,-8.817629,-449078.2,0,0,0,-0.6689812,-8092.331
8.1,-0.08122219,-8.85464,-450963.1,0,0,0,-0.6768516,-8126.298
8.194,-0.08216663,-8.889731,-452750.3,0,0,0,-0.6847219,-8158.502
8.26,-0.08263885,-8.940704,-455346.3,0,0,0,-0.6886571,-8205.283
8.332,-0.0835833,-8.958774,-456266.6,0,0,0,-0.6965275,-8221.866
8.426,-0.08452775,-8.997729,-458250.6,0,0,0,-0.7043979,-8257.617
8.52,-0.08547218,-9.030889,-459939.4,0,0,0,-0.7122682,-8288.05
8.616,-0.08641663,-9.068372,-461848.4,0,0,0,-0.7201386,-8322.449
8.692,-0.08712496,-9.101585,-463539.9,0,0,0,-0.7260414,-8352.93
8.778,-0.08806941,-9.137576,-465372.9,0,0,0,-0.7339118,-8385.961
8.84,-0.08877774,-9.173653,-467210.3,0,0,0,-0.7398145,-8419.07
8.914,-0.08948608,-9.210468,-469085.3,0,0,0,-0.7457173,-8452.857
8.99,-0.09019441,-9.225289,-469840.1,0,0,0,-0.7516201,-8466.459
9.06,-0.09066664,-9.261734,-471696.3,0,0,0,-0.7555553,-8499.906
9.142,-0.09137496,-9.282709,-472764.5,0,0,0,-0.761458,-8519.156
9.206,-0.09208329,-9.319691,-474648,0,0,0,-0.7673607,-8553.096
9.278,-0.09279162,-9.353492,-476369.5,0,0,0,-0.7732635,-8584.117
9.382,-0.09397218,-9.391895,-478325.3,0,0,0,-0.7831016,-8619.361
9.492,-0.09491662,-9.402561,-478868.5,0,0,0,-0.7909719,-8629.149
9.6,-0.09586107,-9.404061,-478944.9,0,0,0,-0.7988423,-8630.526
9.686,-0.09680552,-9.423261,-479922.7,0,0,0,-0.8067126,-8648.146
9.756,-0.09751385,-9.465449,-482071.4,0,0,0,-0.8126154,-8686.865
9.844,-0.09845829,-9.490447,-483344.5,0,0,0,-0.8204858,-8709.807
9.89,-0.09893051,-9.536359,-485682.8,0,0,0,-0.8244209,-8751.942
9.98,-0.09987496,-9.568426,-487315.9,0,0,0,-0.8322913,-8781.371
10.002,-0.1001111,-9.576138,-487708.7,0,0,0,-0.834259,-8788.449